   Temp (K)   mole % SiO2  mole % ZnO     wt % SiO2    wt % ZnO     a(SiO2)      a(ZnO)     a(Zn2SiO4)  
     1833.000        0.135       99.865        0.001       99.999   3.6104E-05   9.9601E-01   1.3183E-03
     1833.000        0.271       99.729        0.002       99.998   7.2748E-05   9.9202E-01   2.6352E-03
     1833.000        0.406       99.594        0.003       99.997   1.0994E-04   9.8804E-01   3.9505E-03
     1833.000        0.541       99.459        0.004       99.996   1.4769E-04   9.8406E-01   5.2643E-03
     1833.000        0.676       99.324        0.005       99.995   1.8601E-04   9.8008E-01   6.5766E-03
     1833.000        0.811       99.189        0.006       99.994   2.2490E-04   9.7611E-01   7.8873E-03
     1833.000        0.946       99.054        0.007       99.993   2.6438E-04   9.7215E-01   9.1965E-03
     1833.000        1.081       98.919        0.008       99.992   3.0444E-04   9.6818E-01   1.0504E-02
     1833.000        1.216       98.784        0.009       99.991   3.4512E-04   9.6422E-01   1.1810E-02
     1833.000        1.350       98.650        0.010       99.990   3.8640E-04   9.6027E-01   1.3115E-02
     1833.000        1.485       98.515        0.011       99.989   4.2831E-04   9.5632E-01   1.4418E-02
     1833.000        1.619       98.381        0.012       99.988   4.7085E-04   9.5237E-01   1.5719E-02
     1833.000        1.753       98.247        0.013       99.987   5.1402E-04   9.4843E-01   1.7019E-02
     1833.000        1.887       98.113        0.014       99.986   5.5786E-04   9.4449E-01   1.8317E-02
     1833.000        2.022       97.978        0.015       99.985   6.0236E-04   9.4055E-01   1.9614E-02
     1833.000        2.156       97.844        0.016       99.984   6.4752E-04   9.3663E-01   2.0909E-02
     1833.000        2.290       97.710        0.017       99.983   6.9338E-04   9.3270E-01   2.2202E-02
     1833.000        2.423       97.577        0.018       99.982   7.3993E-04   9.2878E-01   2.3494E-02
     1833.000        2.557       97.443        0.019       99.981   7.8719E-04   9.2486E-01   2.4784E-02
     1833.000        2.691       97.309        0.020       99.980   8.3516E-04   9.2095E-01   2.6072E-02
     1833.000        2.824       97.176        0.021       99.979   8.8387E-04   9.1704E-01   2.7359E-02
     1833.000        2.958       97.042        0.022       99.978   9.3331E-04   9.1313E-01   2.8644E-02
     1833.000        3.091       96.909        0.023       99.977   9.8350E-04   9.0923E-01   2.9927E-02
     1833.000        3.224       96.776        0.024       99.976   1.0345E-03   9.0534E-01   3.1209E-02
     1833.000        3.357       96.643        0.025       99.975   1.0862E-03   9.0145E-01   3.2489E-02
     1833.000        3.491       96.509        0.026       99.974   1.1387E-03   8.9756E-01   3.3767E-02
     1833.000        3.624       96.376        0.027       99.973   1.1921E-03   8.9368E-01   3.5044E-02
     1833.000        3.756       96.244        0.028       99.972   1.2462E-03   8.8980E-01   3.6318E-02
     1833.000        3.889       96.111        0.029       99.971   1.3012E-03   8.8592E-01   3.7591E-02
     1833.000        4.022       95.978        0.030       99.970   1.3571E-03   8.8206E-01   3.8862E-02
     1833.000        4.155       95.845        0.031       99.969   1.4138E-03   8.7819E-01   4.0132E-02
     1833.000        4.287       95.713        0.032       99.968   1.4713E-03   8.7433E-01   4.1400E-02
     1833.000        4.419       95.581        0.033       99.967   1.5298E-03   8.7047E-01   4.2665E-02
     1833.000        4.552       95.448        0.034       99.966   1.5891E-03   8.6662E-01   4.3929E-02
     1833.000        4.684       95.316        0.035       99.965   1.6494E-03   8.6277E-01   4.5191E-02
     1833.000        4.816       95.184        0.036       99.964   1.7106E-03   8.5893E-01   4.6452E-02
     1833.000        4.948       95.052        0.037       99.963   1.7727E-03   8.5510E-01   4.7710E-02
     1833.000        5.080       94.920        0.038       99.962   1.8358E-03   8.5126E-01   4.8966E-02
     1833.000        5.212       94.788        0.039       99.961   1.8999E-03   8.4744E-01   5.0221E-02
     1833.000        5.344       94.656        0.040       99.960   1.9650E-03   8.4361E-01   5.1474E-02
     1833.000        5.475       94.525        0.041       99.959   2.0311E-03   8.3979E-01   5.2724E-02
     1833.000        5.607       94.393        0.042       99.958   2.0982E-03   8.3598E-01   5.3973E-02
     1833.000        5.739       94.261        0.043       99.957   2.1663E-03   8.3217E-01   5.5220E-02
     1833.000        5.870       94.130        0.044       99.956   2.2356E-03   8.2837E-01   5.6465E-02
     1833.000        6.001       93.999        0.045       99.955   2.3059E-03   8.2457E-01   5.7708E-02
     1833.000        6.132       93.868        0.046       99.954   2.3773E-03   8.2078E-01   5.8948E-02
     1833.000        6.264       93.736        0.047       99.953   2.4498E-03   8.1699E-01   6.0187E-02
     1833.000        6.395       93.605        0.048       99.952   2.5235E-03   8.1320E-01   6.1424E-02
     1833.000        6.526       93.474        0.049       99.951   2.5983E-03   8.0942E-01   6.2658E-02
     1833.000        6.656       93.344        0.050       99.950   2.6743E-03   8.0565E-01   6.3891E-02
     1833.000        6.787       93.213        0.051       99.949   2.7515E-03   8.0188E-01   6.5121E-02
     1833.000        6.918       93.082        0.052       99.948   2.8299E-03   7.9812E-01   6.6350E-02
     1833.000        7.048       92.952        0.053       99.947   2.9095E-03   7.9436E-01   6.7576E-02
     1833.000        7.179       92.821        0.054       99.946   2.9904E-03   7.9061E-01   6.8800E-02
     1833.000        7.309       92.691        0.055       99.945   3.0726E-03   7.8686E-01   7.0022E-02
     1833.000        7.440       92.560        0.056       99.944   3.1560E-03   7.8312E-01   7.1241E-02
     1833.000        7.570       92.430        0.057       99.943   3.2408E-03   7.7938E-01   7.2459E-02
     1833.000        7.700       92.300        0.058       99.942   3.3269E-03   7.7565E-01   7.3674E-02
     1833.000        7.830       92.170        0.059       99.941   3.4144E-03   7.7192E-01   7.4887E-02
     1833.000        7.960       92.040        0.060       99.940   3.5033E-03   7.6820E-01   7.6098E-02
     1833.000        8.090       91.910        0.061       99.939   3.5936E-03   7.6449E-01   7.7306E-02
     1833.000        8.220       91.780        0.062       99.938   3.6854E-03   7.6078E-01   7.8512E-02
     1833.000        8.349       91.651        0.063       99.937   3.7785E-03   7.5707E-01   7.9715E-02
     1833.000        8.479       91.521        0.064       99.936   3.8732E-03   7.5338E-01   8.0916E-02
     1833.000        8.608       91.392        0.065       99.935   3.9694E-03   7.4968E-01   8.2115E-02
     1833.000        8.738       91.262        0.066       99.934   4.0672E-03   7.4600E-01   8.3311E-02
     1833.000        8.867       91.133        0.067       99.933   4.1665E-03   7.4231E-01   8.4505E-02
     1833.000        8.996       91.004        0.068       99.932   4.2674E-03   7.3864E-01   8.5697E-02
     1833.000        9.125       90.875        0.069       99.931   4.3699E-03   7.3497E-01   8.6886E-02
     1833.000        9.254       90.746        0.070       99.930   4.4740E-03   7.3131E-01   8.8072E-02
     1833.000        9.383       90.617        0.071       99.929   4.5798E-03   7.2765E-01   8.9256E-02
     1833.000        9.512       90.488        0.072       99.928   4.6874E-03   7.2400E-01   9.0437E-02
     1833.000        9.641       90.359        0.073       99.927   4.7966E-03   7.2035E-01   9.1616E-02
     1833.000        9.770       90.230        0.074       99.926   4.9076E-03   7.1672E-01   9.2791E-02
     1833.000        9.898       90.102        0.075       99.925   5.0205E-03   7.1308E-01   9.3965E-02
     1833.000       10.027       89.973        0.076       99.924   5.1351E-03   7.0946E-01   9.5135E-02
     1833.000       10.155       89.845        0.077       99.923   5.2516E-03   7.0584E-01   9.6303E-02
     1833.000       10.284       89.716        0.078       99.922   5.3700E-03   7.0222E-01   9.7468E-02
     1833.000       10.412       89.588        0.079       99.921   5.4902E-03   6.9862E-01   9.8630E-02
     1833.000       10.540       89.460        0.080       99.920   5.6125E-03   6.9502E-01   9.9789E-02
     1833.000       10.668       89.332        0.081       99.919   5.7367E-03   6.9142E-01   1.0095E-01
     1833.000       10.796       89.204        0.082       99.918   5.8629E-03   6.8784E-01   1.0210E-01
     1833.000       10.924       89.076        0.083       99.917   5.9912E-03   6.8426E-01   1.0325E-01
     1833.000       11.052       88.948        0.084       99.916   6.1216E-03   6.8068E-01   1.0440E-01
     1833.000       11.179       88.821        0.085       99.915   6.2540E-03   6.7712E-01   1.0554E-01
     1833.000       11.307       88.693        0.086       99.914   6.3887E-03   6.7356E-01   1.0668E-01
     1833.000       11.435       88.565        0.087       99.913   6.5255E-03   6.7000E-01   1.0782E-01
     1833.000       11.562       88.438        0.088       99.912   6.6646E-03   6.6646E-01   1.0896E-01
     1833.000       11.689       88.311        0.089       99.911   6.8060E-03   6.6292E-01   1.1009E-01
     1833.000       11.817       88.183        0.090       99.910   6.9496E-03   6.5939E-01   1.1122E-01
     1833.000       11.944       88.056        0.091       99.909   7.0956E-03   6.5586E-01   1.1235E-01
     1833.000       12.071       87.929        0.092       99.908   7.2440E-03   6.5235E-01   1.1347E-01
     1833.000       12.198       87.802        0.093       99.907   7.3947E-03   6.4884E-01   1.1459E-01
     1833.000       12.325       87.675        0.094       99.906   7.5480E-03   6.4534E-01   1.1570E-01
     1833.000       12.452       87.548        0.095       99.905   7.7038E-03   6.4184E-01   1.1682E-01
     1833.000       12.579       87.421        0.096       99.904   7.8621E-03   6.3836E-01   1.1793E-01
     1833.000       12.705       87.295        0.097       99.903   8.0230E-03   6.3488E-01   1.1903E-01
     1833.000       12.832       87.168        0.098       99.902   8.1866E-03   6.3141E-01   1.2013E-01
     1833.000       12.958       87.042        0.099       99.901   8.3528E-03   6.2795E-01   1.2123E-01
     1833.000       13.085       86.915        0.100       99.900   8.5218E-03   6.2449E-01   1.2233E-01
     1833.000       13.211       86.789        0.101       99.899   8.6935E-03   6.2105E-01   1.2342E-01
     1833.000       13.337       86.663        0.102       99.898   8.8680E-03   6.1761E-01   1.2451E-01
     1833.000       13.463       86.537        0.103       99.897   9.0454E-03   6.1418E-01   1.2559E-01
     1833.000       13.589       86.411        0.104       99.896   9.2257E-03   6.1076E-01   1.2667E-01
     1833.000       13.715       86.285        0.105       99.895   9.4090E-03   6.0735E-01   1.2775E-01
     1833.000       13.841       86.159        0.106       99.894   9.5952E-03   6.0394E-01   1.2882E-01
     1833.000       13.967       86.033        0.107       99.893   9.7845E-03   6.0055E-01   1.2989E-01
     1833.000       14.093       85.907        0.108       99.892   9.9770E-03   5.9716E-01   1.3095E-01
     1833.000       14.218       85.782        0.109       99.891   1.0173E-02   5.9378E-01   1.3201E-01
     1833.000       14.344       85.656        0.110       99.890   1.0371E-02   5.9041E-01   1.3307E-01
     1833.000       14.469       85.531        0.111       99.889   1.0573E-02   5.8705E-01   1.3412E-01
     1833.000       14.595       85.405        0.112       99.888   1.0779E-02   5.8370E-01   1.3517E-01
     1833.000       14.720       85.280        0.113       99.887   1.0987E-02   5.8036E-01   1.3622E-01
     1833.000       14.845       85.155        0.114       99.886   1.1199E-02   5.7703E-01   1.3726E-01
     1833.000       14.970       85.030        0.115       99.885   1.1415E-02   5.7371E-01   1.3829E-01
     1833.000       15.095       84.905        0.116       99.884   1.1634E-02   5.7039E-01   1.3932E-01
     1833.000       15.220       84.780        0.117       99.883   1.1857E-02   5.6709E-01   1.4035E-01
     1833.000       15.345       84.655        0.118       99.882   1.2083E-02   5.6380E-01   1.4137E-01
     1833.000       15.470       84.530        0.119       99.881   1.2313E-02   5.6051E-01   1.4239E-01
     1833.000       15.595       84.405        0.120       99.880   1.2547E-02   5.5724E-01   1.4340E-01
     1833.000       15.719       84.281        0.121       99.879   1.2784E-02   5.5398E-01   1.4441E-01
     1833.000       15.844       84.156        0.122       99.878   1.3026E-02   5.5072E-01   1.4542E-01
     1833.000       15.968       84.032        0.123       99.877   1.3271E-02   5.4748E-01   1.4641E-01
     1833.000       16.093       83.907        0.124       99.876   1.3520E-02   5.4425E-01   1.4741E-01
     1833.000       16.217       83.783        0.125       99.875   1.3774E-02   5.4103E-01   1.4840E-01
     1833.000       16.341       83.659        0.126       99.874   1.4031E-02   5.3782E-01   1.4938E-01
     1833.000       16.465       83.535        0.127       99.873   1.4293E-02   5.3462E-01   1.5036E-01
     1833.000       16.589       83.411        0.128       99.872   1.4558E-02   5.3143E-01   1.5134E-01
     1833.000       16.713       83.287        0.129       99.871   1.4828E-02   5.2825E-01   1.5231E-01
     1833.000       16.837       83.163        0.130       99.870   1.5103E-02   5.2509E-01   1.5327E-01
     1833.000       16.961       83.039        0.131       99.869   1.5382E-02   5.2193E-01   1.5423E-01
     1833.000       17.084       82.916        0.132       99.868   1.5665E-02   5.1879E-01   1.5518E-01
     1833.000       17.208       82.792        0.133       99.867   1.5953E-02   5.1565E-01   1.5613E-01
     1833.000       17.332       82.668        0.134       99.866   1.6245E-02   5.1253E-01   1.5707E-01
     1833.000       17.455       82.545        0.135       99.865   1.6542E-02   5.0942E-01   1.5801E-01
     1833.000       17.578       82.422        0.136       99.864   1.6844E-02   5.0633E-01   1.5894E-01
     1833.000       17.702       82.298        0.137       99.863   1.7150E-02   5.0324E-01   1.5987E-01
     1833.000       17.825       82.175        0.138       99.862   1.7461E-02   5.0017E-01   1.6079E-01
     1833.000       17.948       82.052        0.139       99.861   1.7778E-02   4.9711E-01   1.6170E-01
     1833.000       18.071       81.929        0.140       99.860   1.8099E-02   4.9406E-01   1.6261E-01
     1833.000       18.194       81.806        0.141       99.859   1.8425E-02   4.9103E-01   1.6352E-01
     1833.000       18.317       81.683        0.142       99.858   1.8757E-02   4.8800E-01   1.6441E-01
     1833.000       18.439       81.561        0.143       99.857   1.9093E-02   4.8499E-01   1.6530E-01
     1833.000       18.562       81.438        0.144       99.856   1.9435E-02   4.8200E-01   1.6619E-01
     1833.000       18.685       81.315        0.145       99.855   1.9782E-02   4.7901E-01   1.6707E-01
     1833.000       18.807       81.193        0.146       99.854   2.0134E-02   4.7604E-01   1.6794E-01
     1833.000       18.930       81.070        0.147       99.853   2.0492E-02   4.7308E-01   1.6881E-01
     1833.000       19.052       80.948        0.148       99.852   2.0855E-02   4.7014E-01   1.6967E-01
     1833.000       19.174       80.826        0.149       99.851   2.1224E-02   4.6721E-01   1.7052E-01
     1833.000       19.296       80.704        0.150       99.850   2.1598E-02   4.6429E-01   1.7137E-01
     1833.000       19.418       80.582        0.151       99.849   2.1978E-02   4.6139E-01   1.7221E-01
     1833.000       19.540       80.460        0.152       99.848   2.2364E-02   4.5850E-01   1.7304E-01
     1833.000       19.662       80.338        0.153       99.847   2.2755E-02   4.5562E-01   1.7387E-01
     1833.000       19.784       80.216        0.154       99.846   2.3152E-02   4.5276E-01   1.7469E-01
     1833.000       19.906       80.094        0.155       99.845   2.3556E-02   4.4992E-01   1.7551E-01
     1833.000       20.028       79.972        0.156       99.844   2.3965E-02   4.4708E-01   1.7632E-01
     1833.000       20.149       79.851        0.157       99.843   2.4380E-02   4.4427E-01   1.7712E-01
     1833.000       20.271       79.729        0.158       99.842   2.4801E-02   4.4146E-01   1.7791E-01
     1833.000       20.392       79.608        0.159       99.841   2.5229E-02   4.3867E-01   1.7870E-01
     1833.000       20.514       79.486        0.160       99.840   2.5662E-02   4.3590E-01   1.7948E-01
     1833.000       20.635       79.365        0.161       99.839   2.6102E-02   4.3314E-01   1.8025E-01
     1833.000       20.756       79.244        0.162       99.838   2.6548E-02   4.3040E-01   1.8102E-01
     1833.000       20.877       79.123        0.163       99.837   2.7001E-02   4.2767E-01   1.8178E-01
     1833.000       20.998       79.002        0.164       99.836   2.7460E-02   4.2496E-01   1.8253E-01
     1833.000       21.119       78.881        0.165       99.835   2.7925E-02   4.2226E-01   1.8327E-01
     1833.000       21.240       78.760        0.166       99.834   2.8397E-02   4.1958E-01   1.8401E-01
     1833.000       21.361       78.639        0.167       99.833   2.8876E-02   4.1691E-01   1.8474E-01
     1833.000       21.482       78.518        0.168       99.832   2.9361E-02   4.1426E-01   1.8546E-01
     1833.000       21.602       78.398        0.169       99.831   2.9852E-02   4.1162E-01   1.8617E-01
     1833.000       21.723       78.277        0.170       99.830   3.0351E-02   4.0900E-01   1.8688E-01
     1833.000       21.843       78.157        0.171       99.829   3.0856E-02   4.0640E-01   1.8758E-01
     1833.000       21.964       78.036        0.172       99.828   3.1368E-02   4.0381E-01   1.8827E-01
     1833.000       22.084       77.916        0.173       99.827   3.1887E-02   4.0124E-01   1.8896E-01
     1833.000       22.204       77.796        0.174       99.826   3.2413E-02   3.9869E-01   1.8963E-01
     1833.000       22.324       77.676        0.175       99.825   3.2945E-02   3.9615E-01   1.9030E-01
     1833.000       22.444       77.556        0.176       99.824   3.3485E-02   3.9362E-01   1.9096E-01
     1833.000       22.564       77.436        0.177       99.823   3.4032E-02   3.9112E-01   1.9162E-01
     1833.000       22.684       77.316        0.178       99.822   3.4585E-02   3.8863E-01   1.9226E-01
     1833.000       22.804       77.196        0.179       99.821   3.5146E-02   3.8615E-01   1.9290E-01
     1833.000       22.924       77.076        0.180       99.820   3.5714E-02   3.8370E-01   1.9353E-01
     1833.000       23.044       76.956        0.181       99.819   3.6288E-02   3.8126E-01   1.9415E-01
     1833.000       23.163       76.837        0.182       99.818   3.6870E-02   3.7883E-01   1.9477E-01
     1833.000       23.283       76.717        0.183       99.817   3.7460E-02   3.7643E-01   1.9537E-01
     1833.000       23.402       76.598        0.184       99.816   3.8056E-02   3.7403E-01   1.9597E-01
     1833.000       23.521       76.479        0.185       99.815   3.8660E-02   3.7166E-01   1.9656E-01
     1833.000       23.641       76.359        0.186       99.814   3.9271E-02   3.6930E-01   1.9714E-01
     1833.000       23.760       76.240        0.187       99.813   3.9889E-02   3.6697E-01   1.9771E-01
     1833.000       23.879       76.121        0.188       99.812   4.0514E-02   3.6464E-01   1.9828E-01
     1833.000       23.998       76.002        0.189       99.811   4.1147E-02   3.6234E-01   1.9884E-01
