   Temp (K)   mole % SiO2  mole % ZnO     wt % SiO2    wt % ZnO     a(SiO2)      a(ZnO)     a(Zn2SiO4)  
     1873.000        0.135       99.865        0.001       99.999   3.7818E-05   9.9601E-01   1.3166E-03
     1873.000        0.271       99.729        0.002       99.998   7.6201E-05   9.9203E-01   2.6317E-03
     1873.000        0.406       99.594        0.003       99.997   1.1516E-04   9.8805E-01   3.9453E-03
     1873.000        0.541       99.459        0.004       99.996   1.5470E-04   9.8407E-01   5.2573E-03
     1873.000        0.676       99.324        0.005       99.995   1.9483E-04   9.8010E-01   6.5677E-03
     1873.000        0.811       99.189        0.006       99.994   2.3556E-04   9.7613E-01   7.8766E-03
     1873.000        0.946       99.054        0.007       99.993   2.7690E-04   9.7217E-01   9.1840E-03
     1873.000        1.081       98.919        0.008       99.992   3.1886E-04   9.6821E-01   1.0490E-02
     1873.000        1.216       98.784        0.009       99.991   3.6145E-04   9.6426E-01   1.1794E-02
     1873.000        1.350       98.650        0.010       99.990   4.0468E-04   9.6030E-01   1.3097E-02
     1873.000        1.485       98.515        0.011       99.989   4.4856E-04   9.5636E-01   1.4398E-02
     1873.000        1.619       98.381        0.012       99.988   4.9310E-04   9.5241E-01   1.5697E-02
     1873.000        1.753       98.247        0.013       99.987   5.3832E-04   9.4848E-01   1.6995E-02
     1873.000        1.887       98.113        0.014       99.986   5.8420E-04   9.4454E-01   1.8291E-02
     1873.000        2.022       97.978        0.015       99.985   6.3079E-04   9.4061E-01   1.9585E-02
     1873.000        2.156       97.844        0.016       99.984   6.7808E-04   9.3669E-01   2.0878E-02
     1873.000        2.290       97.710        0.017       99.983   7.2608E-04   9.3277E-01   2.2169E-02
     1873.000        2.423       97.577        0.018       99.982   7.7481E-04   9.2885E-01   2.3459E-02
     1873.000        2.557       97.443        0.019       99.981   8.2428E-04   9.2493E-01   2.4747E-02
     1873.000        2.691       97.309        0.020       99.980   8.7448E-04   9.2103E-01   2.6033E-02
     1873.000        2.824       97.176        0.021       99.979   9.2547E-04   9.1712E-01   2.7317E-02
     1873.000        2.958       97.042        0.022       99.978   9.7722E-04   9.1322E-01   2.8600E-02
     1873.000        3.091       96.909        0.023       99.977   1.0297E-03   9.0933E-01   2.9881E-02
     1873.000        3.224       96.776        0.024       99.976   1.0831E-03   9.0543E-01   3.1160E-02
     1873.000        3.357       96.643        0.025       99.975   1.1372E-03   9.0155E-01   3.2438E-02
     1873.000        3.491       96.509        0.026       99.974   1.1922E-03   8.9766E-01   3.3714E-02
     1873.000        3.624       96.376        0.027       99.973   1.2480E-03   8.9379E-01   3.4988E-02
     1873.000        3.756       96.244        0.028       99.972   1.3047E-03   8.8991E-01   3.6260E-02
     1873.000        3.889       96.111        0.029       99.971   1.3622E-03   8.8605E-01   3.7530E-02
     1873.000        4.022       95.978        0.030       99.970   1.4206E-03   8.8218E-01   3.8799E-02
     1873.000        4.155       95.845        0.031       99.969   1.4799E-03   8.7832E-01   4.0066E-02
     1873.000        4.287       95.713        0.032       99.968   1.5401E-03   8.7447E-01   4.1331E-02
     1873.000        4.419       95.581        0.033       99.967   1.6013E-03   8.7062E-01   4.2594E-02
     1873.000        4.552       95.448        0.034       99.966   1.6634E-03   8.6677E-01   4.3855E-02
     1873.000        4.684       95.316        0.035       99.965   1.7264E-03   8.6293E-01   4.5114E-02
     1873.000        4.816       95.184        0.036       99.964   1.7904E-03   8.5909E-01   4.6372E-02
     1873.000        4.948       95.052        0.037       99.963   1.8554E-03   8.5526E-01   4.7627E-02
     1873.000        5.080       94.920        0.038       99.962   1.9214E-03   8.5143E-01   4.8881E-02
     1873.000        5.212       94.788        0.039       99.961   1.9884E-03   8.4761E-01   5.0132E-02
     1873.000        5.344       94.656        0.040       99.960   2.0564E-03   8.4379E-01   5.1382E-02
     1873.000        5.475       94.525        0.041       99.959   2.1255E-03   8.3998E-01   5.2630E-02
     1873.000        5.607       94.393        0.042       99.958   2.1957E-03   8.3618E-01   5.3876E-02
     1873.000        5.739       94.261        0.043       99.957   2.2670E-03   8.3237E-01   5.5119E-02
     1873.000        5.870       94.130        0.044       99.956   2.3393E-03   8.2858E-01   5.6361E-02
     1873.000        6.001       93.999        0.045       99.955   2.4128E-03   8.2478E-01   5.7601E-02
     1873.000        6.132       93.868        0.046       99.954   2.4874E-03   8.2100E-01   5.8838E-02
     1873.000        6.264       93.736        0.047       99.953   2.5632E-03   8.1721E-01   6.0074E-02
     1873.000        6.395       93.605        0.048       99.952   2.6402E-03   8.1344E-01   6.1307E-02
     1873.000        6.526       93.474        0.049       99.951   2.7184E-03   8.0966E-01   6.2538E-02
     1873.000        6.656       93.344        0.050       99.950   2.7978E-03   8.0590E-01   6.3768E-02
     1873.000        6.787       93.213        0.051       99.949   2.8784E-03   8.0214E-01   6.4994E-02
     1873.000        6.918       93.082        0.052       99.948   2.9603E-03   7.9838E-01   6.6219E-02
     1873.000        7.048       92.952        0.053       99.947   3.0435E-03   7.9463E-01   6.7442E-02
     1873.000        7.179       92.821        0.054       99.946   3.1280E-03   7.9088E-01   6.8662E-02
     1873.000        7.309       92.691        0.055       99.945   3.2138E-03   7.8714E-01   6.9881E-02
     1873.000        7.440       92.560        0.056       99.944   3.3010E-03   7.8341E-01   7.1096E-02
     1873.000        7.570       92.430        0.057       99.943   3.3896E-03   7.7968E-01   7.2310E-02
     1873.000        7.700       92.300        0.058       99.942   3.4795E-03   7.7595E-01   7.3522E-02
     1873.000        7.830       92.170        0.059       99.941   3.5709E-03   7.7224E-01   7.4730E-02
     1873.000        7.960       92.040        0.060       99.940   3.6637E-03   7.6852E-01   7.5937E-02
     1873.000        8.090       91.910        0.061       99.939   3.7579E-03   7.6481E-01   7.7142E-02
     1873.000        8.220       91.780        0.062       99.938   3.8537E-03   7.6111E-01   7.8343E-02
     1873.000        8.349       91.651        0.063       99.937   3.9510E-03   7.5742E-01   7.9543E-02
     1873.000        8.479       91.521        0.064       99.936   4.0498E-03   7.5373E-01   8.0740E-02
     1873.000        8.608       91.392        0.065       99.935   4.1502E-03   7.5004E-01   8.1934E-02
     1873.000        8.738       91.262        0.066       99.934   4.2522E-03   7.4637E-01   8.3127E-02
     1873.000        8.867       91.133        0.067       99.933   4.3558E-03   7.4269E-01   8.4316E-02
     1873.000        8.996       91.004        0.068       99.932   4.4610E-03   7.3903E-01   8.5503E-02
     1873.000        9.125       90.875        0.069       99.931   4.5680E-03   7.3537E-01   8.6687E-02
     1873.000        9.254       90.746        0.070       99.930   4.6766E-03   7.3171E-01   8.7869E-02
     1873.000        9.383       90.617        0.071       99.929   4.7870E-03   7.2806E-01   8.9049E-02
     1873.000        9.512       90.488        0.072       99.928   4.8991E-03   7.2442E-01   9.0225E-02
     1873.000        9.641       90.359        0.073       99.927   5.0130E-03   7.2079E-01   9.1399E-02
     1873.000        9.770       90.230        0.074       99.926   5.1288E-03   7.1716E-01   9.2570E-02
     1873.000        9.898       90.102        0.075       99.925   5.2464E-03   7.1354E-01   9.3739E-02
     1873.000       10.027       89.973        0.076       99.924   5.3659E-03   7.0992E-01   9.4904E-02
     1873.000       10.155       89.845        0.077       99.923   5.4873E-03   7.0631E-01   9.6067E-02
     1873.000       10.284       89.716        0.078       99.922   5.6107E-03   7.0271E-01   9.7227E-02
     1873.000       10.412       89.588        0.079       99.921   5.7360E-03   6.9911E-01   9.8384E-02
     1873.000       10.540       89.460        0.080       99.920   5.8634E-03   6.9552E-01   9.9538E-02
     1873.000       10.668       89.332        0.081       99.919   5.9928E-03   6.9194E-01   1.0069E-01
     1873.000       10.796       89.204        0.082       99.918   6.1243E-03   6.8836E-01   1.0184E-01
     1873.000       10.924       89.076        0.083       99.917   6.2579E-03   6.8479E-01   1.0298E-01
     1873.000       11.052       88.948        0.084       99.916   6.3937E-03   6.8123E-01   1.0413E-01
     1873.000       11.179       88.821        0.085       99.915   6.5316E-03   6.7767E-01   1.0527E-01
     1873.000       11.307       88.693        0.086       99.914   6.6718E-03   6.7412E-01   1.0640E-01
     1873.000       11.435       88.565        0.087       99.913   6.8143E-03   6.7058E-01   1.0753E-01
     1873.000       11.562       88.438        0.088       99.912   6.9590E-03   6.6705E-01   1.0866E-01
     1873.000       11.689       88.311        0.089       99.911   7.1061E-03   6.6352E-01   1.0979E-01
     1873.000       11.817       88.183        0.090       99.910   7.2556E-03   6.6000E-01   1.1091E-01
     1873.000       11.944       88.056        0.091       99.909   7.4074E-03   6.5649E-01   1.1203E-01
     1873.000       12.071       87.929        0.092       99.908   7.5618E-03   6.5298E-01   1.1315E-01
     1873.000       12.198       87.802        0.093       99.907   7.7187E-03   6.4949E-01   1.1426E-01
     1873.000       12.325       87.675        0.094       99.906   7.8780E-03   6.4600E-01   1.1537E-01
     1873.000       12.452       87.548        0.095       99.905   8.0400E-03   6.4252E-01   1.1648E-01
     1873.000       12.579       87.421        0.096       99.904   8.2046E-03   6.3904E-01   1.1758E-01
     1873.000       12.705       87.295        0.097       99.903   8.3719E-03   6.3558E-01   1.1868E-01
     1873.000       12.832       87.168        0.098       99.902   8.5419E-03   6.3212E-01   1.1978E-01
     1873.000       12.958       87.042        0.099       99.901   8.7146E-03   6.2867E-01   1.2087E-01
     1873.000       13.085       86.915        0.100       99.900   8.8901E-03   6.2523E-01   1.2196E-01
     1873.000       13.211       86.789        0.101       99.899   9.0685E-03   6.2180E-01   1.2304E-01
     1873.000       13.337       86.663        0.102       99.898   9.2498E-03   6.1837E-01   1.2413E-01
     1873.000       13.463       86.537        0.103       99.897   9.4340E-03   6.1496E-01   1.2520E-01
     1873.000       13.589       86.411        0.104       99.896   9.6212E-03   6.1155E-01   1.2628E-01
     1873.000       13.715       86.285        0.105       99.895   9.8115E-03   6.0815E-01   1.2735E-01
     1873.000       13.841       86.159        0.106       99.894   1.0005E-02   6.0476E-01   1.2841E-01
     1873.000       13.967       86.033        0.107       99.893   1.0201E-02   6.0138E-01   1.2947E-01
     1873.000       14.093       85.907        0.108       99.892   1.0401E-02   5.9801E-01   1.3053E-01
     1873.000       14.218       85.782        0.109       99.891   1.0604E-02   5.9464E-01   1.3158E-01
     1873.000       14.344       85.656        0.110       99.890   1.0810E-02   5.9129E-01   1.3263E-01
     1873.000       14.469       85.531        0.111       99.889   1.1019E-02   5.8794E-01   1.3368E-01
     1873.000       14.595       85.405        0.112       99.888   1.1232E-02   5.8461E-01   1.3472E-01
     1873.000       14.720       85.280        0.113       99.887   1.1449E-02   5.8128E-01   1.3576E-01
     1873.000       14.845       85.155        0.114       99.886   1.1668E-02   5.7797E-01   1.3679E-01
     1873.000       14.970       85.030        0.115       99.885   1.1892E-02   5.7466E-01   1.3782E-01
     1873.000       15.095       84.905        0.116       99.884   1.2119E-02   5.7136E-01   1.3884E-01
     1873.000       15.220       84.780        0.117       99.883   1.2349E-02   5.6808E-01   1.3986E-01
     1873.000       15.345       84.655        0.118       99.882   1.2584E-02   5.6480E-01   1.4087E-01
     1873.000       15.470       84.530        0.119       99.881   1.2822E-02   5.6153E-01   1.4188E-01
     1873.000       15.595       84.405        0.120       99.880   1.3064E-02   5.5827E-01   1.4289E-01
     1873.000       15.719       84.281        0.121       99.879   1.3310E-02   5.5503E-01   1.4389E-01
     1873.000       15.844       84.156        0.122       99.878   1.3559E-02   5.5179E-01   1.4488E-01
     1873.000       15.968       84.032        0.123       99.877   1.3813E-02   5.4857E-01   1.4587E-01
     1873.000       16.093       83.907        0.124       99.876   1.4071E-02   5.4535E-01   1.4686E-01
     1873.000       16.217       83.783        0.125       99.875   1.4333E-02   5.4215E-01   1.4784E-01
     1873.000       16.341       83.659        0.126       99.874   1.4599E-02   5.3895E-01   1.4882E-01
     1873.000       16.465       83.535        0.127       99.873   1.4869E-02   5.3577E-01   1.4979E-01
     1873.000       16.589       83.411        0.128       99.872   1.5144E-02   5.3260E-01   1.5075E-01
     1873.000       16.713       83.287        0.129       99.871   1.5423E-02   5.2944E-01   1.5171E-01
     1873.000       16.837       83.163        0.130       99.870   1.5706E-02   5.2629E-01   1.5267E-01
     1873.000       16.961       83.039        0.131       99.869   1.5994E-02   5.2315E-01   1.5362E-01
     1873.000       17.084       82.916        0.132       99.868   1.6286E-02   5.2003E-01   1.5456E-01
     1873.000       17.208       82.792        0.133       99.867   1.6583E-02   5.1691E-01   1.5550E-01
     1873.000       17.332       82.668        0.134       99.866   1.6885E-02   5.1381E-01   1.5643E-01
     1873.000       17.455       82.545        0.135       99.865   1.7191E-02   5.1072E-01   1.5736E-01
     1873.000       17.578       82.422        0.136       99.864   1.7502E-02   5.0764E-01   1.5828E-01
     1873.000       17.702       82.298        0.137       99.863   1.7818E-02   5.0458E-01   1.5920E-01
     1873.000       17.825       82.175        0.138       99.862   1.8139E-02   5.0152E-01   1.6011E-01
     1873.000       17.948       82.052        0.139       99.861   1.8465E-02   4.9848E-01   1.6102E-01
     1873.000       18.071       81.929        0.140       99.860   1.8796E-02   4.9545E-01   1.6192E-01
     1873.000       18.194       81.806        0.141       99.859   1.9132E-02   4.9244E-01   1.6281E-01
     1873.000       18.317       81.683        0.142       99.858   1.9473E-02   4.8943E-01   1.6370E-01
     1873.000       18.439       81.561        0.143       99.857   1.9819E-02   4.8645E-01   1.6458E-01
     1873.000       18.562       81.438        0.144       99.856   2.0170E-02   4.8347E-01   1.6545E-01
     1873.000       18.685       81.315        0.145       99.855   2.0527E-02   4.8050E-01   1.6632E-01
     1873.000       18.807       81.193        0.146       99.854   2.0890E-02   4.7755E-01   1.6719E-01
     1873.000       18.930       81.070        0.147       99.853   2.1257E-02   4.7461E-01   1.6804E-01
     1873.000       19.052       80.948        0.148       99.852   2.1631E-02   4.7169E-01   1.6889E-01
     1873.000       19.174       80.826        0.149       99.851   2.2009E-02   4.6878E-01   1.6974E-01
     1873.000       19.296       80.704        0.150       99.850   2.2394E-02   4.6588E-01   1.7057E-01
     1873.000       19.418       80.582        0.151       99.849   2.2784E-02   4.6300E-01   1.7140E-01
     1873.000       19.540       80.460        0.152       99.848   2.3180E-02   4.6013E-01   1.7223E-01
     1873.000       19.662       80.338        0.153       99.847   2.3582E-02   4.5728E-01   1.7305E-01
     1873.000       19.784       80.216        0.154       99.846   2.3989E-02   4.5444E-01   1.7386E-01
     1873.000       19.906       80.094        0.155       99.845   2.4403E-02   4.5161E-01   1.7466E-01
     1873.000       20.028       79.972        0.156       99.844   2.4822E-02   4.4880E-01   1.7546E-01
     1873.000       20.149       79.851        0.157       99.843   2.5248E-02   4.4600E-01   1.7625E-01
     1873.000       20.271       79.729        0.158       99.842   2.5680E-02   4.4322E-01   1.7703E-01
     1873.000       20.392       79.608        0.159       99.841   2.6117E-02   4.4045E-01   1.7781E-01
     1873.000       20.514       79.486        0.160       99.840   2.6561E-02   4.3770E-01   1.7858E-01
     1873.000       20.635       79.365        0.161       99.839   2.7012E-02   4.3496E-01   1.7934E-01
     1873.000       20.756       79.244        0.162       99.838   2.7468E-02   4.3224E-01   1.8010E-01
     1873.000       20.877       79.123        0.163       99.837   2.7931E-02   4.2953E-01   1.8085E-01
     1873.000       20.998       79.002        0.164       99.836   2.8401E-02   4.2684E-01   1.8159E-01
     1873.000       21.119       78.881        0.165       99.835   2.8877E-02   4.2416E-01   1.8232E-01
     1873.000       21.240       78.760        0.166       99.834   2.9359E-02   4.2150E-01   1.8305E-01
     1873.000       21.361       78.639        0.167       99.833   2.9848E-02   4.1885E-01   1.8377E-01
     1873.000       21.482       78.518        0.168       99.832   3.0343E-02   4.1622E-01   1.8448E-01
     1873.000       21.602       78.398        0.169       99.831   3.0845E-02   4.1361E-01   1.8518E-01
     1873.000       21.723       78.277        0.170       99.830   3.1354E-02   4.1101E-01   1.8588E-01
     1873.000       21.843       78.157        0.171       99.829   3.1870E-02   4.0843E-01   1.8657E-01
     1873.000       21.964       78.036        0.172       99.828   3.2392E-02   4.0586E-01   1.8725E-01
     1873.000       22.084       77.916        0.173       99.827   3.2921E-02   4.0331E-01   1.8792E-01
     1873.000       22.204       77.796        0.174       99.826   3.3457E-02   4.0077E-01   1.8859E-01
     1873.000       22.324       77.676        0.175       99.825   3.4000E-02   3.9826E-01   1.8925E-01
     1873.000       22.444       77.556        0.176       99.824   3.4550E-02   3.9575E-01   1.8990E-01
     1873.000       22.564       77.436        0.177       99.823   3.5107E-02   3.9327E-01   1.9054E-01
     1873.000       22.684       77.316        0.178       99.822   3.5671E-02   3.9080E-01   1.9118E-01
     1873.000       22.804       77.196        0.179       99.821   3.6241E-02   3.8834E-01   1.9180E-01
     1873.000       22.924       77.076        0.180       99.820   3.6819E-02   3.8591E-01   1.9242E-01
     1873.000       23.044       76.956        0.181       99.819   3.7404E-02   3.8349E-01   1.9304E-01
     1873.000       23.163       76.837        0.182       99.818   3.7996E-02   3.8108E-01   1.9364E-01
     1873.000       23.283       76.717        0.183       99.817   3.8595E-02   3.7869E-01   1.9424E-01
     1873.000       23.402       76.598        0.184       99.816   3.9201E-02   3.7632E-01   1.9482E-01
     1873.000       23.521       76.479        0.185       99.815   3.9814E-02   3.7397E-01   1.9540E-01
     1873.000       23.641       76.359        0.186       99.814   4.0434E-02   3.7163E-01   1.9598E-01
     1873.000       23.760       76.240        0.187       99.813   4.1062E-02   3.6931E-01   1.9654E-01
     1873.000       23.879       76.121        0.188       99.812   4.1697E-02   3.6701E-01   1.9710E-01
     1873.000       23.998       76.002        0.189       99.811   4.2339E-02   3.6472E-01   1.9765E-01
