   Temp (K)   mole % SiO2  mole % ZnO     wt % SiO2    wt % ZnO     a(SiO2)      a(ZnO)     a(Zn2SiO4)  
     1973.000        0.135       99.865        0.001       99.999   4.2110E-05   9.9602E-01   1.3123E-03
     1973.000        0.271       99.729        0.002       99.998   8.4846E-05   9.9205E-01   2.6231E-03
     1973.000        0.406       99.594        0.003       99.997   1.2822E-04   9.8808E-01   3.9322E-03
     1973.000        0.541       99.459        0.004       99.996   1.7223E-04   9.8411E-01   5.2398E-03
     1973.000        0.676       99.324        0.005       99.995   2.1690E-04   9.8015E-01   6.5457E-03
     1973.000        0.811       99.189        0.006       99.994   2.6224E-04   9.7619E-01   7.8500E-03
     1973.000        0.946       99.054        0.007       99.993   3.0824E-04   9.7223E-01   9.1527E-03
     1973.000        1.081       98.919        0.008       99.992   3.5494E-04   9.6828E-01   1.0454E-02
     1973.000        1.216       98.784        0.009       99.991   4.0233E-04   9.6434E-01   1.1753E-02
     1973.000        1.350       98.650        0.010       99.990   4.5043E-04   9.6040E-01   1.3051E-02
     1973.000        1.485       98.515        0.011       99.989   4.9924E-04   9.5646E-01   1.4347E-02
     1973.000        1.619       98.381        0.012       99.988   5.4878E-04   9.5253E-01   1.5641E-02
     1973.000        1.753       98.247        0.013       99.987   5.9908E-04   9.4860E-01   1.6934E-02
     1973.000        1.887       98.113        0.014       99.986   6.5011E-04   9.4467E-01   1.8225E-02
     1973.000        2.022       97.978        0.015       99.985   7.0191E-04   9.4076E-01   1.9514E-02
     1973.000        2.156       97.844        0.016       99.984   7.5450E-04   9.3684E-01   2.0802E-02
     1973.000        2.290       97.710        0.017       99.983   8.0786E-04   9.3293E-01   2.2088E-02
     1973.000        2.423       97.577        0.018       99.982   8.6203E-04   9.2902E-01   2.3372E-02
     1973.000        2.557       97.443        0.019       99.981   9.1702E-04   9.2512E-01   2.4654E-02
     1973.000        2.691       97.309        0.020       99.980   9.7283E-04   9.2122E-01   2.5935E-02
     1973.000        2.824       97.176        0.021       99.979   1.0295E-03   9.1733E-01   2.7213E-02
     1973.000        2.958       97.042        0.022       99.978   1.0870E-03   9.1344E-01   2.8490E-02
     1973.000        3.091       96.909        0.023       99.977   1.1454E-03   9.0956E-01   2.9766E-02
     1973.000        3.224       96.776        0.024       99.976   1.2046E-03   9.0568E-01   3.1039E-02
     1973.000        3.357       96.643        0.025       99.975   1.2648E-03   9.0180E-01   3.2310E-02
     1973.000        3.491       96.509        0.026       99.974   1.3258E-03   8.9793E-01   3.3580E-02
     1973.000        3.624       96.376        0.027       99.973   1.3878E-03   8.9407E-01   3.4848E-02
     1973.000        3.756       96.244        0.028       99.972   1.4507E-03   8.9021E-01   3.6114E-02
     1973.000        3.889       96.111        0.029       99.971   1.5146E-03   8.8635E-01   3.7378E-02
     1973.000        4.022       95.978        0.030       99.970   1.5794E-03   8.8250E-01   3.8640E-02
     1973.000        4.155       95.845        0.031       99.969   1.6452E-03   8.7865E-01   3.9900E-02
     1973.000        4.287       95.713        0.032       99.968   1.7121E-03   8.7481E-01   4.1159E-02
     1973.000        4.419       95.581        0.033       99.967   1.7799E-03   8.7097E-01   4.2415E-02
     1973.000        4.552       95.448        0.034       99.966   1.8488E-03   8.6714E-01   4.3670E-02
     1973.000        4.684       95.316        0.035       99.965   1.9187E-03   8.6331E-01   4.4922E-02
     1973.000        4.816       95.184        0.036       99.964   1.9897E-03   8.5949E-01   4.6172E-02
     1973.000        4.948       95.052        0.037       99.963   2.0618E-03   8.5567E-01   4.7421E-02
     1973.000        5.080       94.920        0.038       99.962   2.1349E-03   8.5186E-01   4.8667E-02
     1973.000        5.212       94.788        0.039       99.961   2.2092E-03   8.4805E-01   4.9912E-02
     1973.000        5.344       94.656        0.040       99.960   2.2846E-03   8.4425E-01   5.1154E-02
     1973.000        5.475       94.525        0.041       99.959   2.3612E-03   8.4045E-01   5.2394E-02
     1973.000        5.607       94.393        0.042       99.958   2.4390E-03   8.3666E-01   5.3632E-02
     1973.000        5.739       94.261        0.043       99.957   2.5179E-03   8.3288E-01   5.4868E-02
     1973.000        5.870       94.130        0.044       99.956   2.5981E-03   8.2909E-01   5.6102E-02
     1973.000        6.001       93.999        0.045       99.955   2.6795E-03   8.2532E-01   5.7334E-02
     1973.000        6.132       93.868        0.046       99.954   2.7622E-03   8.2155E-01   5.8563E-02
     1973.000        6.264       93.736        0.047       99.953   2.8461E-03   8.1778E-01   5.9791E-02
     1973.000        6.395       93.605        0.048       99.952   2.9313E-03   8.1402E-01   6.1016E-02
     1973.000        6.526       93.474        0.049       99.951   3.0178E-03   8.1026E-01   6.2239E-02
     1973.000        6.656       93.344        0.050       99.950   3.1057E-03   8.0651E-01   6.3460E-02
     1973.000        6.787       93.213        0.051       99.949   3.1949E-03   8.0277E-01   6.4678E-02
     1973.000        6.918       93.082        0.052       99.948   3.2855E-03   7.9903E-01   6.5894E-02
     1973.000        7.048       92.952        0.053       99.947   3.3775E-03   7.9530E-01   6.7108E-02
     1973.000        7.179       92.821        0.054       99.946   3.4710E-03   7.9157E-01   6.8319E-02
     1973.000        7.309       92.691        0.055       99.945   3.5659E-03   7.8785E-01   6.9528E-02
     1973.000        7.440       92.560        0.056       99.944   3.6622E-03   7.8413E-01   7.0735E-02
     1973.000        7.570       92.430        0.057       99.943   3.7601E-03   7.8042E-01   7.1940E-02
     1973.000        7.700       92.300        0.058       99.942   3.8595E-03   7.7671E-01   7.3141E-02
     1973.000        7.830       92.170        0.059       99.941   3.9604E-03   7.7301E-01   7.4341E-02
     1973.000        7.960       92.040        0.060       99.940   4.0629E-03   7.6932E-01   7.5538E-02
     1973.000        8.090       91.910        0.061       99.939   4.1670E-03   7.6563E-01   7.6732E-02
     1973.000        8.220       91.780        0.062       99.938   4.2727E-03   7.6195E-01   7.7924E-02
     1973.000        8.349       91.651        0.063       99.937   4.3801E-03   7.5828E-01   7.9114E-02
     1973.000        8.479       91.521        0.064       99.936   4.4891E-03   7.5461E-01   8.0301E-02
     1973.000        8.608       91.392        0.065       99.935   4.5999E-03   7.5094E-01   8.1485E-02
     1973.000        8.738       91.262        0.066       99.934   4.7124E-03   7.4729E-01   8.2666E-02
     1973.000        8.867       91.133        0.067       99.933   4.8266E-03   7.4364E-01   8.3845E-02
     1973.000        8.996       91.004        0.068       99.932   4.9427E-03   7.3999E-01   8.5022E-02
     1973.000        9.125       90.875        0.069       99.931   5.0605E-03   7.3635E-01   8.6195E-02
     1973.000        9.254       90.746        0.070       99.930   5.1802E-03   7.3272E-01   8.7366E-02
     1973.000        9.383       90.617        0.071       99.929   5.3019E-03   7.2909E-01   8.8534E-02
     1973.000        9.512       90.488        0.072       99.928   5.4253E-03   7.2548E-01   8.9699E-02
     1973.000        9.641       90.359        0.073       99.927   5.5508E-03   7.2186E-01   9.0861E-02
     1973.000        9.770       90.230        0.074       99.926   5.6782E-03   7.1826E-01   9.2021E-02
     1973.000        9.898       90.102        0.075       99.925   5.8076E-03   7.1466E-01   9.3177E-02
     1973.000       10.027       89.973        0.076       99.924   5.9391E-03   7.1106E-01   9.4331E-02
     1973.000       10.155       89.845        0.077       99.923   6.0726E-03   7.0748E-01   9.5482E-02
     1973.000       10.284       89.716        0.078       99.922   6.2083E-03   7.0390E-01   9.6630E-02
     1973.000       10.412       89.588        0.079       99.921   6.3461E-03   7.0033E-01   9.7774E-02
     1973.000       10.540       89.460        0.080       99.920   6.4860E-03   6.9676E-01   9.8916E-02
     1973.000       10.668       89.332        0.081       99.919   6.6282E-03   6.9321E-01   1.0005E-01
     1973.000       10.796       89.204        0.082       99.918   6.7726E-03   6.8966E-01   1.0119E-01
     1973.000       10.924       89.076        0.083       99.917   6.9193E-03   6.8611E-01   1.0232E-01
     1973.000       11.052       88.948        0.084       99.916   7.0684E-03   6.8258E-01   1.0345E-01
     1973.000       11.179       88.821        0.085       99.915   7.2197E-03   6.7905E-01   1.0458E-01
     1973.000       11.307       88.693        0.086       99.914   7.3735E-03   6.7553E-01   1.0570E-01
     1973.000       11.435       88.565        0.087       99.913   7.5297E-03   6.7201E-01   1.0682E-01
     1973.000       11.562       88.438        0.088       99.912   7.6884E-03   6.6851E-01   1.0793E-01
     1973.000       11.689       88.311        0.089       99.911   7.8496E-03   6.6501E-01   1.0905E-01
     1973.000       11.817       88.183        0.090       99.910   8.0133E-03   6.6152E-01   1.1016E-01
     1973.000       11.944       88.056        0.091       99.909   8.1797E-03   6.5803E-01   1.1126E-01
     1973.000       12.071       87.929        0.092       99.908   8.3486E-03   6.5456E-01   1.1236E-01
     1973.000       12.198       87.802        0.093       99.907   8.5203E-03   6.5109E-01   1.1346E-01
     1973.000       12.325       87.675        0.094       99.906   8.6947E-03   6.4763E-01   1.1456E-01
     1973.000       12.452       87.548        0.095       99.905   8.8717E-03   6.4418E-01   1.1565E-01
     1973.000       12.579       87.421        0.096       99.904   9.0517E-03   6.4074E-01   1.1674E-01
     1973.000       12.705       87.295        0.097       99.903   9.2345E-03   6.3730E-01   1.1782E-01
     1973.000       12.832       87.168        0.098       99.902   9.4201E-03   6.3388E-01   1.1890E-01
     1973.000       12.958       87.042        0.099       99.901   9.6087E-03   6.3046E-01   1.1998E-01
     1973.000       13.085       86.915        0.100       99.900   9.8004E-03   6.2705E-01   1.2105E-01
     1973.000       13.211       86.789        0.101       99.899   9.9949E-03   6.2365E-01   1.2212E-01
     1973.000       13.337       86.663        0.102       99.898   1.0193E-02   6.2026E-01   1.2318E-01
     1973.000       13.463       86.537        0.103       99.897   1.0394E-02   6.1688E-01   1.2424E-01
     1973.000       13.589       86.411        0.104       99.896   1.0597E-02   6.1350E-01   1.2530E-01
     1973.000       13.715       86.285        0.105       99.895   1.0805E-02   6.1014E-01   1.2635E-01
     1973.000       13.841       86.159        0.106       99.894   1.1015E-02   6.0678E-01   1.2740E-01
     1973.000       13.967       86.033        0.107       99.893   1.1229E-02   6.0344E-01   1.2844E-01
     1973.000       14.093       85.907        0.108       99.892   1.1446E-02   6.0010E-01   1.2948E-01
     1973.000       14.218       85.782        0.109       99.891   1.1667E-02   5.9677E-01   1.3052E-01
     1973.000       14.344       85.656        0.110       99.890   1.1891E-02   5.9345E-01   1.3155E-01
     1973.000       14.469       85.531        0.111       99.889   1.2118E-02   5.9014E-01   1.3258E-01
     1973.000       14.595       85.405        0.112       99.888   1.2350E-02   5.8684E-01   1.3360E-01
     1973.000       14.720       85.280        0.113       99.887   1.2584E-02   5.8355E-01   1.3462E-01
     1973.000       14.845       85.155        0.114       99.886   1.2823E-02   5.8028E-01   1.3563E-01
     1973.000       14.970       85.030        0.115       99.885   1.3065E-02   5.7701E-01   1.3664E-01
     1973.000       15.095       84.905        0.116       99.884   1.3311E-02   5.7375E-01   1.3765E-01
     1973.000       15.220       84.780        0.117       99.883   1.3561E-02   5.7050E-01   1.3865E-01
     1973.000       15.345       84.655        0.118       99.882   1.3814E-02   5.6726E-01   1.3964E-01
     1973.000       15.470       84.530        0.119       99.881   1.4072E-02   5.6403E-01   1.4063E-01
     1973.000       15.595       84.405        0.120       99.880   1.4334E-02   5.6081E-01   1.4162E-01
     1973.000       15.719       84.281        0.121       99.879   1.4600E-02   5.5761E-01   1.4260E-01
     1973.000       15.844       84.156        0.122       99.878   1.4869E-02   5.5441E-01   1.4357E-01
     1973.000       15.968       84.032        0.123       99.877   1.5143E-02   5.5123E-01   1.4454E-01
     1973.000       16.093       83.907        0.124       99.876   1.5422E-02   5.4805E-01   1.4551E-01
     1973.000       16.217       83.783        0.125       99.875   1.5704E-02   5.4489E-01   1.4647E-01
     1973.000       16.341       83.659        0.126       99.874   1.5991E-02   5.4174E-01   1.4742E-01
     1973.000       16.465       83.535        0.127       99.873   1.6282E-02   5.3860E-01   1.4837E-01
     1973.000       16.589       83.411        0.128       99.872   1.6578E-02   5.3547E-01   1.4932E-01
     1973.000       16.713       83.287        0.129       99.871   1.6878E-02   5.3235E-01   1.5026E-01
     1973.000       16.837       83.163        0.130       99.870   1.7183E-02   5.2925E-01   1.5119E-01
     1973.000       16.961       83.039        0.131       99.869   1.7492E-02   5.2615E-01   1.5212E-01
     1973.000       17.084       82.916        0.132       99.868   1.7806E-02   5.2307E-01   1.5304E-01
     1973.000       17.208       82.792        0.133       99.867   1.8125E-02   5.2000E-01   1.5396E-01
     1973.000       17.332       82.668        0.134       99.866   1.8449E-02   5.1694E-01   1.5487E-01
     1973.000       17.455       82.545        0.135       99.865   1.8777E-02   5.1389E-01   1.5578E-01
     1973.000       17.578       82.422        0.136       99.864   1.9111E-02   5.1086E-01   1.5668E-01
     1973.000       17.702       82.298        0.137       99.863   1.9449E-02   5.0784E-01   1.5757E-01
     1973.000       17.825       82.175        0.138       99.862   1.9793E-02   5.0483E-01   1.5846E-01
     1973.000       17.948       82.052        0.139       99.861   2.0141E-02   5.0184E-01   1.5934E-01
     1973.000       18.071       81.929        0.140       99.860   2.0495E-02   4.9885E-01   1.6022E-01
     1973.000       18.194       81.806        0.141       99.859   2.0854E-02   4.9588E-01   1.6109E-01
     1973.000       18.317       81.683        0.142       99.858   2.1218E-02   4.9293E-01   1.6195E-01
     1973.000       18.439       81.561        0.143       99.857   2.1588E-02   4.8998E-01   1.6281E-01
     1973.000       18.562       81.438        0.144       99.856   2.1963E-02   4.8705E-01   1.6366E-01
     1973.000       18.685       81.315        0.145       99.855   2.2343E-02   4.8413E-01   1.6451E-01
     1973.000       18.807       81.193        0.146       99.854   2.2729E-02   4.8123E-01   1.6535E-01
     1973.000       18.930       81.070        0.147       99.853   2.3120E-02   4.7834E-01   1.6618E-01
     1973.000       19.052       80.948        0.148       99.852   2.3517E-02   4.7546E-01   1.6701E-01
     1973.000       19.174       80.826        0.149       99.851   2.3920E-02   4.7260E-01   1.6783E-01
     1973.000       19.296       80.704        0.150       99.850   2.4328E-02   4.6975E-01   1.6864E-01
     1973.000       19.418       80.582        0.151       99.849   2.4742E-02   4.6692E-01   1.6945E-01
     1973.000       19.540       80.460        0.152       99.848   2.5162E-02   4.6410E-01   1.7025E-01
     1973.000       19.662       80.338        0.153       99.847   2.5588E-02   4.6129E-01   1.7104E-01
     1973.000       19.784       80.216        0.154       99.846   2.6020E-02   4.5850E-01   1.7183E-01
     1973.000       19.906       80.094        0.155       99.845   2.6457E-02   4.5572E-01   1.7261E-01
     1973.000       20.028       79.972        0.156       99.844   2.6901E-02   4.5296E-01   1.7338E-01
     1973.000       20.149       79.851        0.157       99.843   2.7351E-02   4.5021E-01   1.7415E-01
     1973.000       20.271       79.729        0.158       99.842   2.7807E-02   4.4747E-01   1.7491E-01
     1973.000       20.392       79.608        0.159       99.841   2.8269E-02   4.4476E-01   1.7566E-01
     1973.000       20.514       79.486        0.160       99.840   2.8737E-02   4.4205E-01   1.7640E-01
     1973.000       20.635       79.365        0.161       99.839   2.9212E-02   4.3936E-01   1.7714E-01
     1973.000       20.756       79.244        0.162       99.838   2.9693E-02   4.3669E-01   1.7787E-01
     1973.000       20.877       79.123        0.163       99.837   3.0180E-02   4.3403E-01   1.7860E-01
     1973.000       20.998       79.002        0.164       99.836   3.0674E-02   4.3138E-01   1.7931E-01
     1973.000       21.119       78.881        0.165       99.835   3.1174E-02   4.2876E-01   1.8002E-01
     1973.000       21.240       78.760        0.166       99.834   3.1680E-02   4.2614E-01   1.8072E-01
     1973.000       21.361       78.639        0.167       99.833   3.2193E-02   4.2355E-01   1.8142E-01
     1973.000       21.482       78.518        0.168       99.832   3.2713E-02   4.2096E-01   1.8211E-01
     1973.000       21.602       78.398        0.169       99.831   3.3239E-02   4.1840E-01   1.8279E-01
     1973.000       21.723       78.277        0.170       99.830   3.3772E-02   4.1585E-01   1.8346E-01
     1973.000       21.843       78.157        0.171       99.829   3.4312E-02   4.1331E-01   1.8413E-01
     1973.000       21.964       78.036        0.172       99.828   3.4858E-02   4.1079E-01   1.8478E-01
     1973.000       22.084       77.916        0.173       99.827   3.5411E-02   4.0829E-01   1.8543E-01
     1973.000       22.204       77.796        0.174       99.826   3.5971E-02   4.0580E-01   1.8608E-01
     1973.000       22.324       77.676        0.175       99.825   3.6537E-02   4.0333E-01   1.8671E-01
     1973.000       22.444       77.556        0.176       99.824   3.7111E-02   4.0087E-01   1.8734E-01
     1973.000       22.564       77.436        0.177       99.823   3.7691E-02   3.9843E-01   1.8796E-01
     1973.000       22.684       77.316        0.178       99.822   3.8278E-02   3.9601E-01   1.8857E-01
     1973.000       22.804       77.196        0.179       99.821   3.8871E-02   3.9360E-01   1.8917E-01
     1973.000       22.924       77.076        0.180       99.820   3.9472E-02   3.9121E-01   1.8977E-01
     1973.000       23.044       76.956        0.181       99.819   4.0080E-02   3.8884E-01   1.9036E-01
     1973.000       23.163       76.837        0.182       99.818   4.0694E-02   3.8648E-01   1.9094E-01
     1973.000       23.283       76.717        0.183       99.817   4.1316E-02   3.8414E-01   1.9152E-01
     1973.000       23.402       76.598        0.184       99.816   4.1944E-02   3.8181E-01   1.9208E-01
     1973.000       23.521       76.479        0.185       99.815   4.2580E-02   3.7950E-01   1.9264E-01
     1973.000       23.641       76.359        0.186       99.814   4.3222E-02   3.7721E-01   1.9319E-01
     1973.000       23.760       76.240        0.187       99.813   4.3872E-02   3.7493E-01   1.9373E-01
     1973.000       23.879       76.121        0.188       99.812   4.4528E-02   3.7267E-01   1.9427E-01
     1973.000       23.998       76.002        0.189       99.811   4.5191E-02   3.7043E-01   1.9479E-01
